[DEFAULT]

version = diffpy.pdfgetx-2.1.1.post83

# input and output specifications
dataformat = QA
inputfile = HCA_powder_tot.qq.txt
outputtype = iq

# PDF calculation setup
mode = xray
composition = C
bgscales = 1.0
rpoly = 1.1
qmaxinst = 27.9863
qmin = 0
qmax = 27.9863
rmin = 0
rmax = 30
rstep = 0.01

# End of config --------------------------------------------------------------

#### start data
#S 1
#L Q(Ã…$^{-1}$)  intensity(a.u.)
0 381226
0.0275 381226
0.055 381226
0.0825 381226
0.11 381226
0.1375 381226
0.165 381226
0.1925 381226
0.22 381226
0.2475 381226
0.275 381226
0.3025 381226
0.33 381226
0.3575 381226
0.385 381226
0.4125 381226
0.44 381226
0.4675 381226
0.495 381226
0.5225 365287
0.55 319436
0.5775 284281
0.605 254254
0.6325 229180
0.66 208063
0.6875 190362
0.715 175422
0.7425 162830
0.77 152122
0.7975 142971
0.825 135187
0.8525 128508
0.88 122838
0.9075 118011
0.935 113912
0.9625 110505
0.99 107714
1.0175 105482
1.045 103768
1.0725 102529
1.1 101730
1.1275 101350
1.155 101374
1.1825 101804
1.21 102639
1.2375 103856
1.265 105457
1.2925 107476
1.32 109893
1.3475 112722
1.375 115940
1.4025 119499
1.43 123388
1.4575 127522
1.485 131826
1.5125 136176
1.54 140379
1.5675 144269
1.595 147632
1.6225 150215
1.65 151806
1.6775 152209
1.705 151289
1.7325 148965
1.76 145235
1.7875 140101
1.815 133592
1.8425 125804
1.87 117003
1.8975 107675
1.925 98258.6
1.9525 89156.1
1.98 80627.1
2.0075 72753.5
2.035 65613.8
2.0625 59262.1
2.09 53656.9
2.1175 48774.5
2.145 44557.5
2.1725 40924.2
2.2 37832.3
2.2275 35195.2
2.255 32956.8
2.2825 31075
2.31 29496.5
2.3375 28178.7
2.365 27080.7
2.3925 26166.7
2.42 25405.8
2.4475 24770.8
2.475 24249
2.5025 23842.5
2.53 23551.8
2.5575 23374.5
2.585 23324.5
2.6125 23424.6
2.64 23693.9
2.6675 24151.6
2.695 24822
2.7225 25775
2.75 27150.4
2.7775 29119.8
2.805 31882.3
2.8325 35660.5
2.86 40673.5
2.8875 47062.4
2.915 54688.1
2.9425 63004
2.97 71007.3
2.9975 77471.1
3.025 81364.7
3.0525 82218.6
3.08 80299.4
3.1075 76436.3
3.135 71609.1
3.1625 66624.3
3.19 61968.8
3.2175 57865.1
3.245 54384.6
3.2725 51495.5
3.3 49117.2
3.3275 47155.1
3.355 45532.6
3.3825 44197.4
3.41 43086.7
3.4375 42134.2
3.465 41276.6
3.4925 40504.7
3.52 39805.5
3.5475 39148.8
3.575 38517
3.6025 37898.4
3.63 37279.7
3.6575 36643.4
3.685 35975.8
3.7125 35273.7
3.74 34547.3
3.7675 33810.7
3.795 33075.5
3.8225 32351.7
3.85 31653.2
3.8775 30981.4
3.905 30338.4
3.9325 29726.3
3.96 29153
3.9875 28624.2
4.015 28135.4
4.0425 27681.1
4.07 27261.6
4.0975 26879
4.125 26528
4.1525 26206.6
4.18 25915.5
4.2075 25640.2
4.235 25383.1
4.2625 25155.1
4.29 24954.7
4.3175 24780.4
4.345 24629.3
4.3725 24494.2
4.4 24366
4.4275 24245
4.455 24139.1
4.4825 24050.4
4.51 23979
4.5375 23926.6
4.565 23894
4.5925 23882.6
4.62 23896.2
4.6475 23938
4.675 24010.6
4.7025 24117
4.73 24262.5
4.7575 24453
4.785 24697.8
4.8125 25014.9
4.84 25433.7
4.8675 25987
4.895 26716.5
4.9225 27676.9
4.95 28937.6
4.9775 30571.2
5.005 32643.1
5.0325 35193.7
5.06 38206.1
5.0875 41570.6
5.115 45057.1
5.1425 48314.6
5.17 50961
5.1975 52694.5
5.225 53384.8
5.2525 53086
5.28 51990.8
5.3075 50362.8
5.335 48479.1
5.3625 46568
5.39 44750
5.4175 43086
5.445 41597.8
5.4725 40286.9
5.5 39143.4
5.5275 38150.8
5.555 37287.5
5.5825 36537.4
5.61 35884
5.6375 35318.1
5.665 34833
5.6925 34425.2
5.72 34088.6
5.7475 33824.4
5.775 33638.4
5.8025 33531.3
5.83 33499.3
5.8575 33532.2
5.885 33608.7
5.9125 33696.6
5.94 33755.6
5.9675 33747.7
5.995 33643.4
6.0225 33435.7
6.05 33134.7
6.0775 32764.9
6.105 32355.1
6.1325 31932.2
6.16 31516.9
6.1875 31121.3
6.215 30753.5
6.2425 30415.2
6.27 30105.5
6.2975 29821.5
6.325 29559.8
6.3525 29317
6.38 29092.3
6.4075 28884.7
6.435 28690.8
6.4625 28509.4
6.49 28340.2
6.5175 28182.1
6.545 28034.4
6.5725 27897.6
6.6 27771
6.6275 27652.5
6.655 27541.4
6.6825 27442.4
6.71 27354.8
6.7375 27258.7
6.765 27152.1
6.7925 27053.5
6.82 26966.8
6.8475 26885.7
6.875 26808.2
6.9025 26737.6
6.93 26669.8
6.9575 26602.2
6.985 26537
7.0125 26475.4
7.04 26417
7.0675 26359.3
7.095 26304.3
7.1225 26252.9
7.15 26205.2
7.1775 26161.5
7.205 26123.1
7.2325 26091.4
7.26 26059.8
7.2875 26023.5
7.315 25988
7.3425 25958.9
7.37 25935.6
7.3975 25918.1
7.425 25907.6
7.4525 25905.2
7.48 25912.3
7.5075 25931.3
7.535 25967.3
7.5625 26026.3
7.59 26115.4
7.6175 26240.2
7.645 26406.8
7.6725 26623.6
7.7 26897.2
7.7275 27229
7.755 27618.3
7.7825 28052.5
7.81 28505.8
7.8375 28941.1
7.865 29319
7.8925 29602.7
7.92 29766.3
7.9475 29802.6
7.975 29720.1
8.0025 29545.4
8.03 29309.7
8.0575 29041.2
8.085 28760.5
8.1125 28485.5
8.14 28228.1
8.1675 27994.5
8.195 27786.9
8.2225 27603.1
8.25 27442.8
8.2775 27304
8.305 27184.4
8.3325 27083.3
8.36 26999.5
8.3875 26932.7
8.415 26882.2
8.4425 26848.8
8.47 26833.3
8.4975 26833.7
8.525 26852.3
8.5525 26896.4
8.58 26970.1
8.6075 27074.3
8.635 27213.1
8.6625 27395.9
8.69 27635.2
8.7175 27935.9
8.745 28304.6
8.7725 28741.7
8.8 29241.1
8.8275 29784
8.855 30337.3
8.8825 30864.4
8.91 31323.5
8.9375 31672.5
8.965 31882.7
8.9925 31945.9
9.02 31869.8
9.0475 31678
9.075 31401.5
9.1025 31073.2
9.13 30721.7
9.1575 30368
9.185 30026.6
9.2125 29706.4
9.24 29409.7
9.2675 29138.8
9.295 28893.1
9.3225 28669.3
9.35 28466.4
9.3775 28283.8
9.405 28118.6
9.4325 27968.2
9.46 27832.5
9.4875 27711
9.515 27600.4
9.5425 27499.4
9.57 27408.7
9.5975 27328.2
9.625 27256.5
9.6525 27193
9.68 27138
9.7075 27091
9.735 27053.2
9.7625 27024.8
9.79 27004.9
9.8175 26994.9
9.845 26994.4
9.8725 27004.6
9.9 27029.5
9.9275 27070.5
9.955 27130.1
9.9825 27212.3
10.01 27320.9
10.0375 27457.3
10.065 27626.5
10.0925 27835.3
10.12 28085.2
10.1475 28374.5
10.175 28696.5
10.2025 29039.6
10.23 29385.2
10.2575 29710.9
10.285 29992.3
10.3125 30209.3
10.34 30352.1
10.3675 30416.3
10.395 30406.5
10.4225 30338
10.45 30230.1
10.4775 30102.4
10.505 29974.4
10.5325 29859.7
10.56 29766.2
10.5875 29697.1
10.615 29651
10.6425 29621.1
10.67 29597.7
10.6975 29569.3
10.725 29527.3
10.7525 29464.4
10.78 29376.3
10.8075 29263.8
10.835 29127.6
10.8625 28973.3
10.89 28809.6
10.9175 28643.4
10.945 28478.8
10.9725 28320.9
11 28172.4
11.0275 28034.8
11.055 27907.3
11.0825 27788
11.11 27675.8
11.1375 27571.6
11.165 27475.9
11.1925 27387.7
11.22 27305.9
11.2475 27230
11.275 27159.2
11.3025 27092.1
11.33 27028.5
11.3575 26969.9
11.385 26916.6
11.4125 26867.3
11.44 26822.2
11.4675 26781.3
11.495 26743.9
11.5225 26711.1
11.55 26682.9
11.5775 26658.8
11.605 26640.4
11.6325 26628.6
11.66 26622.8
11.6875 26624.4
11.715 26632.1
11.7425 26645.1
11.77 26662.7
11.7975 26682.8
11.825 26703.2
11.8525 26721.5
11.88 26733.6
11.9075 26735.3
11.935 26726.6
11.9625 26708.1
11.99 26679.1
12.0175 26641.9
12.045 26600
12.0725 26555.7
12.1 26509.3
12.1275 26462.2
12.155 26415.6
12.1825 26370.6
12.21 26328.9
12.2375 26291.3
12.265 26257
12.2925 26225.3
12.32 26196.6
12.3475 26170.7
12.375 26146.9
12.4025 26125.4
12.43 26107.6
12.4575 26093.7
12.485 26083.6
12.5125 26076.8
12.54 26073
12.5675 26073.2
12.595 26079.6
12.6225 26091.5
12.65 26110
12.6775 26135.4
12.705 26167.8
12.7325 26207.3
12.76 26253.2
12.7875 26306.5
12.815 26365.8
12.8425 26429.8
12.87 26496.5
12.8975 26560.7
12.925 26617.3
12.9525 26663.5
12.98 26697.4
13.0075 26720.3
13.035 26732.1
13.0625 26735.1
13.09 26731.9
13.1175 26724.5
13.145 26716.3
13.1725 26712.2
13.2 26715.4
13.2275 26729.7
13.255 26757.5
13.2825 26799.9
13.31 26859.7
13.3375 26938.3
13.365 27036.7
13.3925 27157.1
13.42 27300.2
13.4475 27462.7
13.475 27641.4
13.5025 27830.4
13.53 28019
13.5575 28195.9
13.585 28352
13.6125 28476.8
13.64 28564.7
13.6675 28610.5
13.695 28612.5
13.7225 28574
13.75 28500.4
13.7775 28401.9
13.805 28287
13.8325 28162.2
13.86 28034.2
13.8875 27906.3
13.915 27781.6
13.9425 27662
13.97 27549.3
13.9975 27444.5
14.025 27347.8
14.0525 27259
14.08 27176.6
14.1075 27099.8
14.135 27028.3
14.1625 26962.5
14.19 26902.2
14.2175 26846.7
14.245 26795.6
14.2725 26747.6
14.3 26702.4
14.3275 26659.5
14.355 26619.6
14.3825 26584.3
14.41 26552.8
14.4375 26523.5
14.465 26496.5
14.4925 26471
14.52 26447.4
14.5475 26426.6
14.575 26409.4
14.6025 26395.5
14.63 26384.8
14.6575 26376.6
14.685 26371.9
14.7125 26369.9
14.74 26369.8
14.7675 26370.8
14.795 26371.7
14.8225 26372.7
14.85 26372.8
14.8775 26371.2
14.905 26367.3
14.9325 26362.9
14.96 26359.2
14.9875 26355.5
15.015 26352.3
15.0425 26350.4
15.07 26350.7
15.0975 26353.6
15.125 26362.7
15.1525 26377.2
15.18 26396.6
15.2075 26419.7
15.235 26449.2
15.2625 26483
15.29 26521.5
15.3175 26564.3
15.345 26608
15.3725 26649.6
15.4 26688
15.4275 26721.4
15.455 26747
15.4825 26764.9
15.51 26774.9
15.5375 26776.7
15.565 26771.3
15.5925 26759.1
15.62 26741.6
15.6475 26720.6
15.675 26695.7
15.7025 26667.9
15.73 26637.4
15.7575 26603.9
15.785 26567.7
15.8125 26528.9
15.84 26488
15.8675 26446
15.895 26403.7
15.9225 26360.6
15.95 26318.9
15.9775 26283
16.005 26248.6
16.0325 26216
16.06 26185.8
16.0875 26157.6
16.115 26132.4
16.1425 26110.3
16.17 26090.9
16.1975 26074.3
16.225 26060.4
16.2525 26049.2
16.28 26041.4
16.3075 26035.6
16.335 26031.7
16.3625 26029.9
16.39 26030.4
16.4175 26032
16.445 26034.3
16.4725 26037
16.5 26038.8
16.5275 26038.2
16.555 26034.3
16.5825 26027.2
16.61 26017.7
16.6375 26005.7
16.665 25991.8
16.6925 25975
16.72 25956.3
16.7475 25937.6
16.775 25918
16.8025 25898.4
16.83 25879.7
16.8575 25862
16.885 25845.2
16.9125 25829.1
16.94 25814
16.9675 25799.9
16.995 25787.9
17.0225 25775.8
17.05 25763.8
17.0775 25752.5
17.105 25741.4
17.1325 25732.3
17.16 25725
17.1875 25718.6
17.215 25712.6
17.2425 25706.9
17.27 25702.8
17.2975 25700.8
17.325 25699.8
17.3525 25699.9
17.38 25701
17.4075 25702.6
17.435 25707
17.4625 25714.1
17.49 25724.1
17.5175 25734.3
17.545 25744.2
17.5725 25753.5
17.6 25762.4
17.6275 25775.7
17.655 25797.5
17.6825 25826.2
17.71 25860.1
17.7375 25893.5
17.765 25923.5
17.7925 25949.2
17.82 25970.6
17.8475 25988.5
17.875 26004
17.9025 26016.8
17.93 26027.3
17.9575 26035.1
17.985 26040.4
18.0125 26043.9
18.04 26046
18.0675 26046.1
18.095 26045.8
18.1225 26045.4
18.15 26044.4
18.1775 26043
18.205 26041.7
18.2325 26041.8
18.26 26048.9
18.2875 26056.1
18.315 26066.5
18.3425 26079
18.37 26093
18.3975 26109.9
18.425 26127.5
18.4525 26144.2
18.48 26158.9
18.5075 26170.9
18.535 26178.8
18.5625 26182.2
18.59 26180.7
18.6175 26173.7
18.645 26160.8
18.6725 26143
18.7 26121.5
18.7275 26097.8
18.755 26073.1
18.7825 26047.8
18.81 26019.1
18.8375 25990
18.865 25963.8
18.8925 25938.4
18.92 25914.3
18.9475 25891.2
18.975 25868.4
19.0025 25847
19.03 25827.7
19.0575 25809.4
19.085 25793.1
19.1125 25777.6
19.14 25762.6
19.1675 25749.8
19.195 25738.4
19.2225 25728
19.25 25719.2
19.2775 25711.2
19.305 25703.8
19.3325 25697.2
19.36 25690.8
19.3875 25684.3
19.415 25677.4
19.4425 25670.5
19.47 25664.7
19.4975 25657.6
19.525 25648.8
19.5525 25638.6
19.58 25629
19.6075 25619.6
19.635 25610.7
19.6625 25602.3
19.69 25593.9
19.7175 25584.3
19.745 25573.7
19.7725 25563.4
19.8 25552.4
19.8275 25541
19.855 25535.7
19.8825 25526.8
19.91 25519
19.9375 25511.2
19.965 25502.7
19.9925 25495.3
20.02 25489.2
20.0475 25484.3
20.075 25480.7
20.1025 25476.9
20.13 25473.4
20.1575 25471.1
20.185 25469.4
20.2125 25468
20.24 25468.2
20.2675 25469.7
20.295 25471.8
20.3225 25473.8
20.35 25476.9
20.3775 25481.5
20.405 25486.3
20.4325 25491.4
20.46 25496.4
20.4875 25499.4
20.515 25502.3
20.5425 25510.8
20.57 25514.4
20.5975 25517.2
20.625 25519
20.6525 25519.8
20.68 25520.9
20.7075 25519.7
20.735 25516.2
20.7625 25512.1
20.79 25507.6
20.8175 25501.6
20.845 25494.2
20.8725 25486.1
20.9 25477.8
20.9275 25468.5
20.955 25459.5
20.9825 25451.4
21.01 25442.6
21.0375 25433.3
21.065 25426
21.0925 25417.6
21.12 25408.8
21.1475 25401.1
21.175 25394.1
21.2025 25387.9
21.23 25381.3
21.2575 25375.3
21.285 25369.7
21.3125 25365.3
21.34 25361.9
21.3675 25356.6
21.395 25351.2
21.4225 25346.6
21.45 25341.9
21.4775 25336.8
21.505 25330.8
21.5325 25324.7
21.56 25319.4
21.5875 25314
21.615 25307.4
21.6425 25300.7
21.67 25295.9
21.6975 25291.2
21.725 25285.8
21.7525 25281.4
21.78 25276.8
21.8075 25272.5
21.835 25269.2
21.8625 25266.3
21.89 25263.6
21.9175 25260.4
21.945 25258.3
21.9725 25258.2
22 25258.1
22.0275 25258.5
22.055 25259.3
22.0825 25260.6
22.11 25262
22.1375 25263
22.165 25264.5
22.1925 25267.4
22.22 25271.2
22.2475 25273.9
22.275 25277.4
22.3025 25281.1
22.33 25284.8
22.3575 25287.8
22.385 25289.1
22.4125 25289.3
22.44 25287.3
22.4675 25285.2
22.495 25281.6
22.5225 25277.3
22.55 25273.2
22.5775 25267.7
22.605 25262
22.6325 25255.7
22.66 25248.4
22.6875 25240.9
22.715 25234.9
22.7425 25228.5
22.77 25222
22.7975 25216.8
22.825 25211.7
22.8525 25207
22.88 25202.8
22.9075 25198.8
22.935 25196.3
22.9625 25194.8
22.99 25188.2
23.0175 25184.2
23.045 25183.6
23.0725 25182.5
23.1 25179.7
23.1275 25177.7
23.155 25176.1
23.1825 25174.5
23.21 25173
23.2375 25172.9
23.265 25172.5
23.2925 25173.2
23.32 25173.7
23.3475 25172.6
23.375 25172.8
23.4025 25173.6
23.43 25173.7
23.4575 25173.6
23.485 25173.4
23.5125 25173
23.54 25171.9
23.5675 25169.7
23.595 25166.5
23.6225 25162.5
23.65 25157.9
23.6775 25152
23.705 25144.8
23.7325 25137.8
23.76 25130.9
23.7875 25123.3
23.815 25115.8
23.8425 25107.7
23.87 25099.1
23.8975 25090.8
23.925 25082.2
23.9525 25073.5
23.98 25065.2
24.0075 25055.9
24.035 25046.8
24.0625 25039.2
24.09 25032.4
24.1175 25025.6
24.145 25020.3
24.1725 25015
24.2 25010
24.2275 25003.3
24.255 24994.2
24.2825 24983.4
24.31 24976.8
24.3375 24972.2
24.365 24969.6
24.3925 24961.9
24.42 24949.9
24.4475 24941.3
24.475 24929.1
24.5025 24915.9
24.53 24902.9
24.5575 24888.8
24.585 24876.7
24.6125 24867.8
24.64 24858
24.6675 24849
24.695 24837.7
24.7225 24825.8
24.75 24815
24.7775 24803.7
24.805 24793.4
24.8325 24782.1
24.86 24774.6
24.8875 24779.5
24.915 24788
24.9425 24791.3
24.97 24795.8
24.9975 24798.5
25.025 24798.5
25.0525 24796.3
25.08 24793.4
25.1075 24791.1
25.135 24789.8
25.1625 24789.3
25.19 24788
25.2175 24786.1
25.245 24785.8
25.2725 24785.8
25.3 24786.4
25.3275 24786.8
25.355 24787
25.3825 24787.1
25.41 24786.6
25.4375 24787.9
25.465 24789.6
25.4925 24790.9
25.52 24791.2
25.5475 24788.7
25.575 24784
25.6025 24781.5
25.63 24779.4
25.6575 24776.3
25.685 24773.5
25.7125 24771.1
25.74 24770.1
25.7675 24768.7
25.795 24766.9
25.8225 24765.5
25.85 24764.9
25.8775 24763.6
25.905 24762.1
25.9325 24759.9
25.96 24757.1
25.9875 24754.9
26.015 24752.2
26.0425 24745.6
26.07 24739.3
26.0975 24745.1
26.125 24743.8
26.1525 24739.1
26.18 24733.8
26.2075 24727.8
26.235 24724.4
26.2625 24720.8
26.29 24717.7
26.3175 24715.4
26.345 24714.7
26.3725 24716.1
26.4 24718.5
26.4275 24722.9
26.455 24731.6
26.4825 24740.4
26.51 24748.4
26.5375 24752.3
26.565 24753
26.5925 24750.6
26.62 24744.8
26.6475 24734.7
26.675 24723.8
26.7025 24712.4
26.73 24704
26.7575 24698.5
26.785 24697.9
26.8125 24694.3
26.84 24687.5
26.8675 24682.6
26.895 24675.7
26.9225 24667.8
26.95 24662.7
26.9775 24661.9
27.005 24664.2
27.0325 24665.1
27.06 24667.6
27.0875 24667.9
27.115 24667.8
27.1425 24667.9
27.17 24661.5
27.1975 24651.4
27.225 24646.4
27.2525 24637.8
27.28 24629.9
27.3075 24626.2
27.335 24625.2
27.3625 24620.7
27.39 24618.3
27.4175 24617.1
27.445 24612.9
27.4725 24604.7
27.5 24599.5
27.5275 24597.9
27.555 24595.3
27.5825 24590.8
27.61 24584.5
27.6375 24576
27.665 24568.4
27.6925 24565.5
27.72 24561.1
27.7475 24553.9
27.775 24547.6
27.8025 24541.3
27.83 24536.7
27.8575 24531.4
27.885 24527.9
27.9125 24520.6
27.94 24516
27.9675 24510.3
